# Step     T (K)     E_KS (eV)    E_tot (eV)   Vol (A^3)    P (kBar)
     1   1196.75   -3326.86881   -3324.23914     900.136     102.427
     2   1020.94   -3326.86897   -3324.62562     900.136     102.066
     3    887.80   -3326.89032   -3324.93952     900.136     101.042
     4    779.00   -3326.83302   -3325.12129     900.136     101.565
     5    637.00   -3326.17071   -3324.77101     900.136      98.786
     6    797.60   -3325.88263   -3324.13002     900.136     104.046
     7   2527.10   -3324.84910   -3319.29621     900.136      94.292
     8   2056.88   -3324.76570   -3320.24606     900.136      99.681
     9   1632.84   -3324.53510   -3320.94720     900.136      97.980
    10   1378.94   -3324.48414   -3321.45414     900.136      95.881
    11   1284.04   -3324.84773   -3322.02625     900.136      93.842
    12   1179.98   -3325.06816   -3322.47535     900.136      91.855
    13   1055.17   -3325.17937   -3322.86081     900.136      90.011
    14    962.62   -3325.31395   -3323.19875     900.136      88.295
    15    919.91   -3325.55692   -3323.53558     900.136      85.045
    16    905.31   -3325.82881   -3323.83954     900.136      81.657
    17    931.86   -3326.19175   -3324.14414     900.136      79.835
    18    984.83   -3326.65272   -3324.48872     900.136      79.858
    19    886.34   -3326.82402   -3324.87644     900.136      82.045
    20    668.58   -3326.28899   -3324.81991     900.136      83.652
    21    784.65   -3326.85531   -3325.13118     900.136      77.116
    22    598.40   -3326.66732   -3325.35243     900.136      77.720
    23    552.96   -3326.61183   -3325.39678     900.136      77.748
    24    704.18   -3327.10515   -3325.55783     900.136      74.336
    25    675.45   -3327.23452   -3325.75032     900.136      73.367
    26    595.45   -3327.21439   -3325.90599     900.136      72.623
    27    535.04   -3327.20636   -3326.03069     900.136      73.006
    28    512.84   -3327.28109   -3326.15420     900.136      74.732
    29    471.78   -3327.26921   -3326.23255     900.136      76.738
    30    439.92   -3327.28593   -3326.31928     900.136      76.582
    31    442.34   -3327.36285   -3326.39088     900.136      75.471
    32    448.11   -3327.46271   -3326.47805     900.136      75.132
    33    387.67   -3327.37290   -3326.52106     900.136      76.099
    34    361.23   -3327.33455   -3326.54081     900.136      76.199
    35    419.01   -3327.53097   -3326.61026     900.136      73.704
    36    453.30   -3327.67560   -3326.67954     900.136      72.598
    37    435.78   -3327.72365   -3326.76609     900.136      73.658
    38    383.43   -3327.61629   -3326.77377     900.136      75.533
    39    410.30   -3327.76515   -3326.86359     900.136      73.555
    40    410.60   -3327.80155   -3326.89933     900.136      71.157
    41    415.20   -3327.87106   -3326.95874     900.136      70.280
    42    418.77   -3327.94617   -3327.02599     900.136      70.849
    43    366.47   -3327.87088   -3327.06563     900.136      71.645
    44    297.90   -3327.71608   -3327.06149     900.136      71.433
    45    291.79   -3327.71141   -3327.07025     900.136      70.296
    46    306.34   -3327.75243   -3327.07929     900.136      70.021
    47    287.28   -3327.68946   -3327.05820     900.136      70.186
    48    302.68   -3327.73513   -3327.07005     900.136      69.269
    49    341.50   -3327.82420   -3327.07381     900.136      68.493
    50    403.38   -3328.00933   -3327.12297     900.136      69.399
    51    412.54   -3328.09897   -3327.19248     900.136      72.070
    52    363.96   -3327.99731   -3327.19756     900.136      73.861
    53    376.17   -3328.09667   -3327.27009     900.136      72.417
    54    351.12   -3328.05861   -3327.28709     900.136      71.457
    55    308.12   -3327.97880   -3327.30175     900.136      72.359
    56    281.59   -3327.90565   -3327.28689     900.136      73.284
    57    301.77   -3327.96073   -3327.29764     900.136      73.484
    58    322.43   -3328.00588   -3327.29740     900.136      73.789
    59    348.03   -3328.08295   -3327.31822     900.136      74.632
    60    354.35   -3328.12286   -3327.34425     900.136      75.691
    61    338.67   -3328.11418   -3327.37000     900.136      75.753
    62    314.36   -3328.06453   -3327.37378     900.136      74.996
    63    309.03   -3328.05618   -3327.37714     900.136      75.438
    64    321.26   -3328.10388   -3327.39796     900.136      77.089
    65    303.60   -3328.06344   -3327.39634     900.136      78.750
    66    289.40   -3328.02654   -3327.39064     900.136      78.764
    67    315.91   -3328.09302   -3327.39886     900.136      77.741
    68    351.07   -3328.20005   -3327.42864     900.136      77.381
    69    341.59   -3328.18292   -3327.43233     900.136      77.856
    70    362.76   -3328.26374   -3327.46663     900.136      77.506
    71    381.07   -3328.35224   -3327.51491     900.136      77.316
    72    368.36   -3328.34646   -3327.53705     900.136      78.068
    73    348.23   -3328.34431   -3327.57915     900.136      77.898
    74    304.45   -3328.23956   -3327.57057     900.136      76.680
    75    311.13   -3328.26225   -3327.57859     900.136      74.671
    76    349.81   -3328.37503   -3327.60639     900.136      73.547
    77    345.74   -3328.39681   -3327.63710     900.136      74.404
    78    300.17   -3328.27565   -3327.61608     900.136      74.885
    79    321.02   -3328.34763   -3327.64224     900.136      73.127
    80    345.13   -3328.41094   -3327.65256     900.136      71.695
    81    364.39   -3328.47935   -3327.67868     900.136      71.627
    82    384.67   -3328.56294   -3327.71769     900.136      73.100
    83    378.95   -3328.60446   -3327.77179     900.136      75.084
    84    335.56   -3328.51019   -3327.77287     900.136      76.381
    85    307.27   -3328.47293   -3327.79774     900.136      75.719
    86    278.79   -3328.38692   -3327.77432     900.136      76.329
    87    315.68   -3328.47890   -3327.78524     900.136      77.475
    88    332.07   -3328.52726   -3327.79759     900.136      77.989
    89    316.93   -3328.51922   -3327.82282     900.136      77.156
    90    283.61   -3328.43407   -3327.81089     900.136      76.776
    91    265.01   -3328.37169   -3327.78938     900.136      77.751
    92    281.63   -3328.42280   -3327.80396     900.136      78.455
    93    249.59   -3328.29742   -3327.74898     900.136      78.951
    94    262.34   -3328.33342   -3327.75697     900.136      78.089
    95    264.92   -3328.30062   -3327.71849     900.136      77.959
    96    308.46   -3328.39495   -3327.71717     900.136      77.908
    97    348.17   -3328.52144   -3327.75640     900.136      77.726
    98    321.33   -3328.43190   -3327.72582     900.136      78.557
    99    331.33   -3328.49890   -3327.77087     900.136      77.904
   100    311.83   -3328.43776   -3327.75257     900.136      78.107
